287   : Number of wavelengths
Radiances are in units of W cm-2 sr-1 micron-1
Fit to background spectrum
Wavelength (nm), Radiance, Error, Fitted Radiance
      382.000  2.21325e-05  2.21325e-05  1.84901e-05
      383.000  1.87205e-05  1.87205e-05  1.51451e-05
      384.000  1.97178e-05  1.97178e-05  1.60724e-05
      385.000  2.22968e-05  2.22968e-05  1.86458e-05
      386.000  2.27878e-05  2.27878e-05  1.94718e-05
      387.000  2.22554e-05  2.22554e-05  1.92738e-05
      388.000  2.17151e-05  2.17151e-05  1.99931e-05
      389.000  2.27141e-05  2.27141e-05  2.11122e-05
      390.000  2.54364e-05  2.54364e-05  2.36814e-05
      391.000  2.71187e-05  2.71187e-05  2.54314e-05
      392.000  2.48493e-05  2.48493e-05  2.28501e-05
      393.000  1.91369e-05  1.91369e-05  1.77100e-05
      394.000  1.92232e-05  1.92232e-05  1.79378e-05
      395.000  2.47864e-05  2.47864e-05  2.27109e-05
      396.000  2.42717e-05  2.42717e-05  2.20064e-05
      397.000  2.18802e-05  2.18802e-05  1.99347e-05
      398.000  2.74356e-05  2.74356e-05  2.54073e-05
      399.000  3.35454e-05  3.35454e-05  3.17464e-05
      400.000  3.57228e-05  3.57228e-05  3.40588e-05
      401.000  3.68328e-05  3.68328e-05  3.50396e-05
      402.000  3.71973e-05  3.71973e-05  3.54219e-05
      403.000  3.70346e-05  3.70346e-05  3.51068e-05
      404.000  3.71034e-05  3.71034e-05  3.50570e-05
      405.000  3.64626e-05  3.64626e-05  3.43455e-05
      406.000  3.52080e-05  3.52080e-05  3.37971e-05
      407.000  3.52930e-05  3.52930e-05  3.39387e-05
      408.000  3.75043e-05  3.75043e-05  3.51262e-05
      409.000  3.91741e-05  3.91741e-05  3.57941e-05
      410.000  3.86259e-05  3.86259e-05  3.47695e-05
      411.000  3.94960e-05  3.94960e-05  3.55709e-05
      412.000  4.11481e-05  4.11481e-05  3.71459e-05
      413.000  4.11368e-05  4.11368e-05  3.72432e-05
      414.000  4.10009e-05  4.10009e-05  3.67025e-05
      415.000  4.09261e-05  4.09261e-05  3.63312e-05
      416.000  4.09143e-05  4.09143e-05  3.71437e-05
      417.000  4.08425e-05  4.08425e-05  3.69490e-05
      418.000  4.03247e-05  4.03247e-05  3.65167e-05
      419.000  3.95015e-05  3.95015e-05  3.63153e-05
      420.000  3.93442e-05  3.93442e-05  3.70508e-05
      421.000  4.07782e-05  4.07782e-05  3.81107e-05
      422.000  4.12846e-05  4.12846e-05  3.77726e-05
      423.000  4.03955e-05  4.03955e-05  3.67293e-05
      424.000  4.05162e-05  4.05162e-05  3.68945e-05
      425.000  4.08021e-05  4.08021e-05  3.70213e-05
      426.000  4.06080e-05  4.06080e-05  3.65770e-05
      427.000  4.04919e-05  4.04919e-05  3.61590e-05
      428.000  4.02295e-05  4.02295e-05  3.57457e-05
      429.000  3.83655e-05  3.83655e-05  3.38020e-05
      430.000  3.46865e-05  3.46865e-05  3.04533e-05
      431.000  3.48415e-05  3.48415e-05  3.10381e-05
      432.000  3.96764e-05  3.96764e-05  3.58930e-05
      433.000  4.13364e-05  4.13364e-05  3.74966e-05
      434.000  4.03759e-05  4.03759e-05  3.66556e-05
      435.000  4.15023e-05  4.15023e-05  3.80772e-05
      436.000  4.27187e-05  4.27187e-05  3.99263e-05
      437.000  4.22099e-05  4.22099e-05  3.97795e-05
      438.000  4.07769e-05  4.07769e-05  3.79813e-05
      439.000  4.00283e-05  4.00283e-05  3.75839e-05
      440.000  3.85850e-05  3.85850e-05  3.82114e-05
      441.000  3.71203e-05  3.71203e-05  3.91181e-05
      442.000  3.87153e-05  3.87153e-05  4.07889e-05
      443.000  4.25258e-05  4.25258e-05  4.23606e-05
      444.000  4.56384e-05  4.56384e-05  4.30751e-05
      445.000  4.63903e-05  4.63903e-05  4.26310e-05
      446.000  4.59774e-05  4.59774e-05  4.14225e-05
      447.000  4.68481e-05  4.68481e-05  4.23619e-05
      448.000  4.80789e-05  4.80789e-05  4.35703e-05
      449.000  4.83462e-05  4.83462e-05  4.39016e-05
      450.000  4.91895e-05  4.91895e-05  4.52888e-05
      451.000  5.00637e-05  5.00637e-05  4.61602e-05
      452.000  4.86900e-05  4.86900e-05  4.49829e-05
      453.000  4.65612e-05  4.65612e-05  4.36273e-05
      454.000  4.62212e-05  4.62212e-05  4.42482e-05
      455.000  4.65738e-05  4.65738e-05  4.48537e-05
      456.000  4.69811e-05  4.69811e-05  4.55681e-05
      457.000  4.70612e-05  4.70612e-05  4.55832e-05
      458.000  4.56734e-05  4.56734e-05  4.46601e-05
      459.000  4.35399e-05  4.35399e-05  4.37372e-05
      460.000  4.33474e-05  4.33474e-05  4.40285e-05
      461.000  4.63421e-05  4.63421e-05  4.56250e-05
      462.000  4.96665e-05  4.96665e-05  4.70407e-05
      463.000  5.06431e-05  5.06431e-05  4.68749e-05
      464.000  4.99284e-05  4.99284e-05  4.62403e-05
      465.000  4.90389e-05  4.90389e-05  4.56066e-05
      466.000  4.85225e-05  4.85225e-05  4.55820e-05
      467.000  4.81976e-05  4.81976e-05  4.46315e-05
      468.000  4.90409e-05  4.90409e-05  4.52739e-05
      469.000  4.99597e-05  4.99597e-05  4.55805e-05
      470.000  4.94575e-05  4.94575e-05  4.48692e-05
      471.000  4.93336e-05  4.93336e-05  4.46234e-05
      472.000  5.01159e-05  5.01159e-05  4.55952e-05
      473.000  5.01776e-05  5.01776e-05  4.56138e-05
      474.000  5.00768e-05  5.00768e-05  4.55251e-05
      475.000  4.99313e-05  4.99313e-05  4.59347e-05
      476.000  4.90258e-05  4.90258e-05  4.50672e-05
      477.000  4.84691e-05  4.84691e-05  4.49758e-05
      478.000  4.78180e-05  4.78180e-05  4.41283e-05
      479.000  4.59473e-05  4.59473e-05  4.37110e-05
      480.000  4.36452e-05  4.36452e-05  4.33527e-05
      481.000  4.15195e-05  4.15195e-05  4.26292e-05
      482.000  4.06698e-05  7.40010e-07  4.18925e-05
      483.000  3.95108e-05  7.31056e-07  3.99997e-05
      484.000  3.65406e-05  7.17730e-07  3.64400e-05
      485.000  3.18625e-05  6.80328e-07  3.19617e-05
      486.000  3.05451e-05  6.28823e-07  2.86544e-05
      487.000  3.20454e-05  6.34075e-07  3.29292e-05
      488.000  4.07014e-05  6.71651e-07  3.83377e-05
      489.000  4.38676e-05  6.94887e-07  4.28289e-05
      490.000  4.50864e-05  7.14560e-07  4.40307e-05
      491.000  4.41387e-05  7.07327e-07  4.37821e-05
      492.000  4.32418e-05  6.89353e-07  4.30581e-05
      493.000  4.35912e-05  6.94653e-07  4.32250e-05
      494.000  4.39961e-05  7.07115e-07  4.34304e-05
      495.000  4.39042e-05  7.13809e-07  4.36140e-05
      496.000  4.40171e-05  7.11874e-07  4.35011e-05
      497.000  4.36162e-05  7.06457e-07  4.30878e-05
      498.000  4.25105e-05  6.96833e-07  4.31292e-05
      499.000  4.18717e-05  6.88331e-07  4.18834e-05
      500.000  4.09286e-05  6.80217e-07  4.14807e-05
      501.000  3.97799e-05  6.64830e-07  4.04082e-05
      502.000  3.95095e-05  6.63111e-07  3.99323e-05
      503.000  3.91529e-05  6.72723e-07  4.02029e-05
      504.000  3.82205e-05  6.74241e-07  3.97315e-05
      505.000  3.79929e-05  6.83792e-07  3.92106e-05
      506.000  3.75308e-05  6.95914e-07  3.90874e-05
      507.000  3.55407e-05  6.85347e-07  3.76456e-05
      508.000  3.36405e-05  6.74626e-07  3.51730e-05
      509.000  3.26583e-05  6.77667e-07  3.42536e-05
      510.000  3.23855e-05  6.76030e-07  3.41883e-05
      511.000  3.38841e-05  6.77121e-07  3.50395e-05
      512.000  3.62354e-05  6.77338e-07  3.67604e-05
      513.000  3.80064e-05  6.61900e-07  3.78538e-05
      514.000  3.91291e-05  6.49881e-07  3.87514e-05
      515.000  3.95951e-05  6.52367e-07  3.94732e-05
      516.000  3.79599e-05  6.31370e-07  3.82935e-05
      517.000  3.50670e-05  5.93389e-07  3.61955e-05
      518.000  3.53533e-05  5.93782e-07  3.53846e-05
      519.000  3.61029e-05  6.19575e-07  3.65315e-05
      520.000  3.62939e-05  6.41566e-07  3.70287e-05
      521.000  3.61051e-05  6.54854e-07  3.65739e-05
      522.000  3.58580e-05  6.55307e-07  3.63980e-05
      523.000  3.63813e-05  6.55181e-07  3.63799e-05
      524.000  3.79050e-05  6.67596e-07  3.71748e-05
      525.000  3.85679e-05  6.73044e-07  3.80712e-05
      526.000  3.79847e-05  6.47464e-07  3.74722e-05
      527.000  3.69926e-05  6.23993e-07  3.62407e-05
      528.000  3.90645e-05  6.46351e-07  3.78070e-05
      529.000  3.99190e-05  6.74328e-07  3.91520e-05
      530.000  3.95260e-05  6.79742e-07  3.88965e-05
      531.000  3.83184e-05  6.84309e-07  3.84024e-05
      532.000  3.58508e-05  6.71267e-07  3.65968e-05
      533.000  3.36563e-05  6.52801e-07  3.40135e-05
      534.000  3.25773e-05  6.59120e-07  3.28942e-05
      535.000  3.11345e-05  6.74220e-07  3.16739e-05
      536.000  2.83369e-05  6.74379e-07  2.91212e-05
      537.000  2.51756e-05  6.63598e-07  2.62378e-05
      538.000  2.29042e-05  6.63134e-07  2.35929e-05
      539.000  2.08024e-05  6.59663e-07  2.13625e-05
      540.000  1.84146e-05  6.44649e-07  1.89080e-05
      541.000  1.65644e-05  6.43713e-07  1.68842e-05
      542.000  1.51974e-05  6.54362e-07  1.55247e-05
      543.000  1.51117e-05  6.60580e-07  1.52228e-05
      544.000  1.70000e-05  6.65639e-07  1.63758e-05
      545.000  2.09971e-05  6.69097e-07  1.90782e-05
      546.000  2.60806e-05  6.69954e-07  2.41319e-05
      547.000  3.11735e-05  6.66485e-07  3.00034e-05
      548.000  3.53726e-05  6.63164e-07  3.44844e-05
      549.000  3.81298e-05  6.68814e-07  3.74725e-05
      550.000  3.91503e-05  6.71334e-07  3.86942e-05
      551.000  3.94991e-05  6.69728e-07  3.86445e-05
      554.000  3.74623e-05  6.68752e-07  3.76074e-05
      557.000  3.70637e-05  6.53393e-07  3.57719e-05
      560.000  3.60996e-05  6.38169e-07  3.51504e-05
      563.000  3.62113e-05  6.48825e-07  3.44721e-05
      566.000  3.19359e-05  6.40084e-07  3.20687e-05
      569.000  2.77285e-05  6.44516e-07  2.80501e-05
      572.000  2.45656e-05  6.45374e-07  2.44891e-05
      575.000  2.03761e-05  6.48634e-07  1.97856e-05
      578.000  2.10718e-05  6.39831e-07  2.06395e-05
      605.000  2.47599e-05  6.20683e-07  2.51746e-05
      608.000  1.87516e-05  6.15901e-07  1.92392e-05
      611.000  1.39552e-05  6.09052e-07  1.41908e-05
      614.000  7.87551e-06  5.97631e-07  8.11130e-06
      617.000  6.25031e-06  5.86468e-07  6.69738e-06
      620.000  5.83602e-06  6.03219e-07  6.38007e-06
      623.000  7.59676e-06  5.91161e-07  7.28189e-06
      626.000  1.40412e-05  5.84021e-07  1.25523e-05
      629.000  2.62433e-05  5.92675e-07  2.11179e-05
      632.000  2.46205e-05  5.79814e-07  2.38680e-05
      635.000  2.51062e-05  5.79788e-07  2.34968e-05
      638.000  2.15549e-05  5.83318e-07  2.18012e-05
      642.000  1.70173e-05  5.67879e-07  1.72496e-05
      645.000  1.74180e-05  5.67251e-07  1.75086e-05
      648.000  1.61667e-05  5.66563e-07  1.63954e-05
      651.000  1.44272e-05  5.60789e-07  1.39138e-05
      654.000  1.27532e-05  5.50322e-07  1.22640e-05
      657.000  9.69470e-06  4.81210e-07  8.76039e-06
      660.000  9.03961e-06  5.18637e-07  8.76739e-06
      663.000  7.72375e-06  5.08587e-07  7.54243e-06
      666.000  6.63472e-06  4.98349e-07  6.70709e-06
      669.000  7.02390e-06  4.93087e-07  6.98368e-06
      672.000  9.56452e-06  4.79147e-07  9.69035e-06
      675.000  1.41861e-05  4.71986e-07  1.44513e-05
      678.000  1.66615e-05  4.56913e-07  1.63365e-05
      681.000  1.14477e-05  4.42849e-07  1.25315e-05
      684.000  9.40029e-06  4.32013e-07  1.00878e-05
      687.000  1.12717e-05  4.23892e-07  1.16417e-05
      690.000  1.27575e-05  4.12459e-07  1.29480e-05
      693.000  1.24244e-05  4.00678e-07  1.25707e-05
      696.000  8.36133e-06  3.92704e-07  9.06468e-06
      699.000  5.27889e-06  3.81060e-07  5.64909e-06
      702.000  3.75891e-06  3.65902e-07  4.04316e-06
      705.000  4.30327e-06  3.62526e-07  4.27111e-06
      708.000  5.53547e-06  3.51274e-07  5.42245e-06
      711.000  6.81887e-06  3.41219e-07  6.85623e-06
      714.000  6.44894e-06  3.30667e-07  6.80521e-06
      717.000  3.12255e-06  3.21591e-07  3.36065e-06
      720.000  2.23325e-06  3.09416e-07  2.61737e-06
      723.000  2.10388e-06  3.03266e-07  2.39606e-06
      726.000  1.69745e-06  2.95484e-07  2.00631e-06
      729.000  1.71661e-06  2.82140e-07  1.98619e-06
      733.000  2.03976e-06  2.74971e-07  2.32619e-06
      736.000  2.40125e-06  2.66425e-07  2.62021e-06
      739.000  3.62604e-06  2.55260e-07  3.54100e-06
      742.000  6.45685e-06  2.47010e-07  6.70298e-06
      745.000  8.57471e-06  2.43733e-07  9.15097e-06
      748.000  8.64605e-06  2.38290e-07  9.20237e-06
      751.000  8.78755e-06  2.30501e-07  9.05489e-06
      754.000  8.92679e-06  2.30703e-07  9.18383e-06
      757.000  7.32186e-06  2.28014e-07  8.01494e-06
      760.000  6.04108e-06  2.26646e-07  6.17743e-06
      763.000  4.20507e-06  2.26187e-07  4.37963e-06
      766.000  3.33770e-06  2.18447e-07  3.60738e-06
      769.000  3.43604e-06  2.21145e-07  3.71211e-06
      772.000  2.97803e-06  2.18009e-07  3.19213e-06
      775.000  2.45489e-06  2.15662e-07  2.53585e-06
      778.000  1.99966e-06  2.14444e-07  2.12550e-06
      781.000  1.52211e-06  2.13507e-07  1.72735e-06
      784.000  1.46682e-06  2.12271e-07  1.62885e-06
      787.000  1.51514e-06  2.13262e-07  1.71507e-06
      790.000  1.59293e-06  2.12294e-07  1.71261e-06
      793.000  1.25136e-06  2.05623e-07  1.45922e-06
      796.000  1.23517e-06  2.07032e-07  1.38261e-06
      802.000  1.29072e-06  1.01844e-07  1.50210e-06
      805.000  1.36230e-06  9.93801e-08  1.54725e-06
      808.000  1.52869e-06  9.80813e-08  1.69703e-06
      811.000  1.72643e-06  9.69122e-08  1.81879e-06
      814.000  2.38644e-06  9.55629e-08  2.29797e-06
      817.000  3.15889e-06  9.31432e-08  3.10466e-06
      821.000  4.40618e-06  8.89149e-08  4.54188e-06
      824.000  4.68706e-06  8.83523e-08  4.75338e-06
      827.000  5.00188e-06  8.71758e-08  4.53067e-06
      830.000  6.20378e-06  8.51474e-08  5.80668e-06
      833.000  4.72790e-06  8.20677e-08  5.54389e-06
      836.000  1.54007e-06  8.15688e-08  1.88056e-06
      839.000  1.05231e-06  7.96093e-08  1.19522e-06
      842.000  1.04820e-06  7.82202e-08  1.13200e-06
      845.000  1.24629e-06  7.60659e-08  1.24683e-06
      848.000  1.42120e-06  7.45641e-08  1.47310e-06
      851.000  1.25060e-06  7.05678e-08  1.36810e-06
      854.000  7.96935e-07  6.40695e-08  9.51905e-07
      857.000  7.34555e-07  7.16127e-08  9.30318e-07
      860.000  6.30592e-07  7.07120e-08  8.17966e-07
      863.000  5.70328e-07  7.16041e-08  7.29343e-07
      866.000  5.08116e-07  6.49039e-08  6.78776e-07
      869.000  6.32991e-07  7.04410e-08  8.19500e-07
      872.000  7.05723e-07  7.06119e-08  8.92658e-07
      875.000  7.78932e-07  6.88918e-08  8.88266e-07
      878.000  7.00907e-07  6.86075e-08  8.40847e-07
      881.000  5.34801e-07  6.63676e-08  5.89802e-07
      884.000  3.44302e-07  6.71765e-08  4.08382e-07
      887.000  3.23986e-07  6.53480e-08  3.36438e-07
      890.000  3.68331e-07  6.58169e-08  3.86668e-07
      893.000  3.68429e-07  6.45076e-08  3.72530e-07
      896.000  3.77988e-07  6.43159e-08  3.68632e-07
      899.000  4.33219e-07  6.34043e-08  4.37397e-07
      902.000  4.69968e-07  1.21701e-07  5.09156e-07
      905.000  5.63263e-07  1.25403e-07  6.19313e-07
      908.000  6.36869e-07  1.22477e-07  6.87613e-07
      912.000  6.43533e-07  1.22764e-07  6.90749e-07
      915.000  6.83937e-07  1.22427e-07  7.00972e-07
      918.000  8.04241e-07  1.21435e-07  7.56790e-07
      921.000  9.55108e-07  1.18657e-07  8.88099e-07
      924.000  1.28257e-06  1.16208e-07  1.35247e-06
      927.000  1.76114e-06  1.18036e-07  1.99004e-06
      930.000  3.28930e-06  1.18391e-07  3.53709e-06
      933.000  4.37475e-06  1.18076e-07  4.80541e-06
 
Fits to NDS-2018 spectrum
Wavelength (nm), Radiance, Error, Fitted Radiance 1, Fitted Radiance 2 (tau-only)
      382.000  2.15391e-05  2.15391e-05  1.84368e-05  1.86100e-05
      383.000  1.82186e-05  1.82186e-05  1.50986e-05  1.52449e-05
      384.000  1.91892e-05  1.91892e-05  1.60195e-05  1.61799e-05
      385.000  2.16990e-05  2.16990e-05  1.85803e-05  1.87721e-05
      386.000  2.21769e-05  2.21769e-05  1.93961e-05  1.96181e-05
      387.000  2.16588e-05  2.16588e-05  1.91938e-05  1.94205e-05
      388.000  2.11330e-05  2.11330e-05  1.98970e-05  2.01796e-05
      389.000  2.21051e-05  2.21051e-05  2.10051e-05  2.13082e-05
      390.000  2.47544e-05  2.47544e-05  2.35517e-05  2.39132e-05
      391.000  2.63917e-05  2.63917e-05  2.52776e-05  2.57105e-05
      392.000  2.41831e-05  2.41831e-05  2.26977e-05  2.31275e-05
      393.000  1.86238e-05  1.86238e-05  1.75746e-05  1.79673e-05
      394.000  1.87078e-05  1.87078e-05  1.77930e-05  1.81984e-05
      395.000  2.41219e-05  2.41219e-05  2.25240e-05  2.30107e-05
      396.000  2.36209e-05  2.36209e-05  2.18140e-05  2.23020e-05
      397.000  2.12936e-05  2.12936e-05  1.97447e-05  2.02262e-05
      398.000  2.67001e-05  2.67001e-05  2.51633e-05  2.57376e-05
      399.000  3.26461e-05  3.26461e-05  3.14317e-05  3.21374e-05
      400.000  3.47651e-05  3.47651e-05  3.36969e-05  3.44909e-05
      401.000  3.58453e-05  3.58453e-05  3.46478e-05  3.54764e-05
      402.000  3.62001e-05  3.62001e-05  3.50072e-05  3.58458e-05
      403.000  3.60417e-05  3.60417e-05  3.46730e-05  3.55250e-05
      404.000  3.61086e-05  3.61086e-05  3.45792e-05  3.55143e-05
      405.000  3.54851e-05  3.54851e-05  3.38521e-05  3.47888e-05
      406.000  3.42641e-05  3.42641e-05  3.32794e-05  3.42382e-05
      407.000  3.43468e-05  3.43468e-05  3.33782e-05  3.43980e-05
      408.000  3.64988e-05  3.64988e-05  3.45185e-05  3.55947e-05
      409.000  3.81238e-05  3.81238e-05  3.51225e-05  3.63050e-05
      410.000  3.75903e-05  3.75903e-05  3.40813e-05  3.52680e-05
      411.000  3.84371e-05  3.84371e-05  3.48322e-05  3.60679e-05
      412.000  4.00449e-05  4.00449e-05  3.63371e-05  3.76404e-05
      413.000  4.00340e-05  4.00340e-05  3.63944e-05  3.77266e-05
      414.000  3.99017e-05  3.99017e-05  3.58455e-05  3.71356e-05
      415.000  3.98289e-05  3.98289e-05  3.54652e-05  3.67103e-05
      416.000  3.98174e-05  3.98174e-05  3.61845e-05  3.75480e-05
      417.000  3.97475e-05  3.97475e-05  3.59516e-05  3.73374e-05
      418.000  3.92436e-05  3.92436e-05  3.54712e-05  3.68968e-05
      419.000  3.84425e-05  3.84425e-05  3.52395e-05  3.66654e-05
      420.000  3.82894e-05  3.82894e-05  3.58859e-05  3.74231e-05
      421.000  3.96850e-05  3.96850e-05  3.68632e-05  3.84699e-05
      422.000  4.01778e-05  4.01778e-05  3.64669e-05  3.81250e-05
      423.000  3.93125e-05  3.93125e-05  3.53797e-05  3.70723e-05
      424.000  3.94299e-05  3.94299e-05  3.54902e-05  3.72187e-05
      425.000  3.97082e-05  3.97082e-05  3.55554e-05  3.73056e-05
      426.000  3.95193e-05  3.95193e-05  3.50722e-05  3.68420e-05
      427.000  3.94064e-05  3.94064e-05  3.46049e-05  3.64073e-05
      428.000  3.91509e-05  3.91509e-05  3.41424e-05  3.59776e-05
      429.000  3.73370e-05  3.73370e-05  3.22094e-05  3.40195e-05
      430.000  3.37566e-05  3.37566e-05  2.89283e-05  3.06665e-05
      431.000  3.39074e-05  3.39074e-05  2.94360e-05  3.12269e-05
      432.000  3.86127e-05  3.86127e-05  3.40516e-05  3.60208e-05
      433.000  4.02282e-05  4.02282e-05  3.55418e-05  3.75692e-05
      434.000  3.92934e-05  3.92934e-05  3.46905e-05  3.66939e-05
      435.000  4.03896e-05  4.03896e-05  3.60290e-05  3.80585e-05
      436.000  4.15734e-05  4.15734e-05  3.77812e-05  3.98334e-05
      437.000  4.10783e-05  4.10783e-05  3.76029e-05  3.96499e-05
      438.000  3.96837e-05  3.96837e-05  3.58645e-05  3.78138e-05
      439.000  3.89551e-05  3.89551e-05  3.54541e-05  3.73648e-05
      440.000  3.75506e-05  3.75506e-05  3.62220e-05  3.78563e-05
      441.000  3.61251e-05  3.61251e-05  3.72404e-05  3.86493e-05
      442.000  3.76773e-05  3.76773e-05  3.87093e-05  4.02942e-05
      443.000  4.13857e-05  4.13857e-05  3.98472e-05  4.19479e-05
      444.000  4.44148e-05  4.44148e-05  4.02346e-05  4.27628e-05
      445.000  4.51466e-05  4.51466e-05  3.96798e-05  4.23468e-05
      446.000  4.47448e-05  4.47448e-05  3.85505e-05  4.10948e-05
      447.000  4.55921e-05  4.55921e-05  3.93838e-05  4.20101e-05
      448.000  4.67899e-05  4.67899e-05  4.04828e-05  4.31541e-05
      449.000  4.70501e-05  4.70501e-05  4.07474e-05  4.34687e-05
